Patient Name         : Tom, Tomo
Patient ID           : X1234567890
Comment              : DVHs for one plan
Date                 : Samstag, 7. Juni 5069 15:09:49
Exported by          : me
Type                 : Cumulative Dose Volume Histogram
Description          : The cumulative DVH displays the percentage (relative)
                       or volume (absolute) of structures that receive a dose
                       equal to or greater than a given dose.

Plan: +HN1
Course: C1
Plan Status: Unapproved
Total dose [Gy]: 50.000
% for dose (%): 100.0

Structure: HN1
Approval Status: Unapproved
Plan: +HN1
Course: C1
Volume [cm³]: 1123.7
Dose Cover.[%]: 100.0
Sampling Cover.[%]: 100.0
Min Dose [Gy]: 0.000
Max Dose [Gy]: 56.057
Mean Dose [Gy]: 49.379
Modal Dose [Gy]: 50.373
Median Dose [Gy]: 50.101
STD [Gy]: 3.419
Equiv. Sphere Diam. [cm]: 12.9
Conformity Index: N/A
Gradient Measure [cm]: N/A
Dose Level [Gy]: 
RTOG CI: 
Paddick CI: 
GI: 
ICRU83 HI: 
D0.1cm³ [Gy]: 55.391
D2.0% [Gy]: 52.605
D2.0cm³ [Gy]: 54.301
D30.0% [Gy]: 50.656
D30.0cm³ [Gy]: 52.357
D50.0% [Gy]: 50.101
D66.0% [Gy]: 49.559
D90.0% [Gy]: 47.220
D97.0% [%]: 84.1
D98.0% [%]: 77.4
D98.0% [Gy]: 38.686
V10.0Gy [%]: 100.0
V10.0Gy [cm³]: 1123.2794
V42.0Gy [cm³]: 1090.2543
V50.0Gy [%]: 53.3
V69.3Gy [%]: 0.0
V69.3Gy [cm³]: 0.0000
: 

        Dose [Gy]   Relative dose [%] Ratio of Total Structure Volume [%]
                0                   0                       100
              0.1                 0.2                   99.9962
              0.2                 0.4                   99.9962
              0.3                 0.6                   99.9962
              0.4                 0.8                   99.9961
              0.5                   1                   99.9961
              0.6                 1.2                   99.9961
              0.7                 1.4                    99.996
              0.8                 1.6                    99.996
              0.9                 1.8                   99.9959
                1                   2                   99.9959
              1.1                 2.2                   99.9959
              1.2                 2.4                   99.9958
              1.3                 2.6                   99.9958
              1.4                 2.8                   99.9958
              1.5                   3                   99.9957
              1.6                 3.2                   99.9957
              1.7                 3.4                   99.9956
              1.8                 3.6                   99.9956
              1.9                 3.8                   99.9956
                2                   4                   99.9955
              2.1                 4.2                   99.9955
              2.2                 4.4                   99.9955
              2.3                 4.6                   99.9954
              2.4                 4.8                   99.9954
              2.5                   5                   99.9953
              2.6                 5.2                   99.9953
              2.7                 5.4                   99.9953
              2.8                 5.6                   99.9952
              2.9                 5.8                   99.9952
                3                   6                   99.9951
              3.1                 6.2                   99.9951
              3.2                 6.4                   99.9951
              3.3                 6.6                    99.995
              3.4                 6.8                    99.995
              3.5                   7                   99.9949
              3.6                 7.2                   99.9948
              3.7                 7.4                   99.9948
              3.8                 7.6                   99.9947
              3.9                 7.8                   99.9947
                4                   8                   99.9946
              4.1                 8.2                   99.9946
              4.2                 8.4                   99.9945
              4.3                 8.6                   99.9945
              4.4                 8.8                   99.9944
              4.5                   9                   99.9944
              4.6                 9.2                   99.9944
              4.7                 9.4                   99.9943
              4.8                 9.6                   99.9943
              4.9                 9.8                   99.9942
                5                  10                   99.9942
              5.1                10.2                   99.9941
              5.2                10.4                    99.994
              5.3                10.6                   99.9938
              5.4                10.8                   99.9937
              5.5                  11                   99.9936
              5.6                11.2                   99.9935
              5.7                11.4                   99.9934
              5.8                11.6                   99.9933
              5.9                11.8                   99.9933
                6                  12                   99.9932
              6.1                12.2                   99.9932
              6.2                12.4                   99.9931
              6.3                12.6                    99.993
              6.4                12.8                    99.993
              6.5                  13                   99.9929
              6.6                13.2                   99.9928
              6.7                13.4                   99.9928
              6.8                13.6                   99.9926
              6.9                13.8                   99.9923
                7                  14                    99.992
              7.1                14.2                   99.9916
              7.2                14.4                   99.9912
              7.3                14.6                   99.9909
              7.4                14.8                   99.9906
              7.5                  15                   99.9904
              7.6                15.2                   99.9903
              7.7                15.4                   99.9902
              7.8                15.6                   99.9901
              7.9                15.8                     99.99
                8                  16                   99.9899
              8.1                16.2                   99.9898
              8.2                16.4                   99.9896
              8.3                16.6                   99.9893
              8.4                16.8                   99.9888
              8.5                  17                   99.9881
              8.6                17.2                   99.9869
              8.7                17.4                   99.9855
              8.8                17.6                   99.9833
              8.9                17.8                   99.9811
                9                  18                   99.9778
              9.1                18.2                   99.9755
              9.2                18.4                   99.9729
              9.3                18.6                   99.9708
              9.4                18.8                   99.9683
              9.5                  19                   99.9662
              9.6                19.2                    99.964
              9.7                19.4                    99.962
              9.8                19.6                   99.9604
              9.9                19.8                   99.9596
               10                  20                   99.9593
             10.1                20.2                   99.9591
             10.2                20.4                   99.9588
             10.3                20.6                   99.9584
             10.4                20.8                   99.9579
             10.5                  21                   99.9575
             10.6                21.2                   99.9571
             10.7                21.4                   99.9568
             10.8                21.6                   99.9562
             10.9                21.8                   99.9558
               11                  22                   99.9554
             11.1                22.2                    99.955
             11.2                22.4                   99.9547
             11.3                22.6                   99.9544
             11.4                22.8                   99.9541
             11.5                  23                   99.9538
             11.6                23.2                   99.9534
             11.7                23.4                   99.9531
             11.8                23.6                   99.9528
             11.9                23.8                   99.9525
               12                  24                   99.9522
             12.1                24.2                   99.9519
             12.2                24.4                   99.9516
             12.3                24.6                   99.9512
             12.4                24.8                   99.9509
             12.5                  25                   99.9506
             12.6                25.2                   99.9502
             12.7                25.4                   99.9499
             12.8                25.6                   99.9496
             12.9                25.8                   99.9492
               13                  26                   99.9489
             13.1                26.2                   99.9485
             13.2                26.4                   99.9481
             13.3                26.6                   99.9477
             13.4                26.8                   99.9472
             13.5                  27                   99.9466
             13.6                27.2                   99.9458
             13.7                27.4                   99.9448
             13.8                27.6                   99.9438
             13.9                27.8                   99.9429
               14                  28                   99.9419
             14.1                28.2                    99.941
             14.2                28.4                     99.94
             14.3                28.6                   99.9392
             14.4                28.8                   99.9382
             14.5                  29                   99.9376
             14.6                29.2                   99.9369
             14.7                29.4                   99.9361
             14.8                29.6                   99.9354
             14.9                29.8                   99.9348
               15                  30                   99.9341
             15.1                30.2                   99.9333
             15.2                30.4                   99.9325
             15.3                30.6                    99.931
             15.4                30.8                   99.9293
             15.5                  31                   99.9275
             15.6                31.2                   99.9256
             15.7                31.4                   99.9238
             15.8                31.6                   99.9218
             15.9                31.8                   99.9198
               16                  32                   99.9176
             16.1                32.2                   99.9157
             16.2                32.4                    99.914
             16.3                32.6                   99.9121
             16.4                32.8                   99.9102
             16.5                  33                   99.9085
             16.6                33.2                   99.9066
             16.7                33.4                   99.9042
             16.8                33.6                   99.9019
             16.9                33.8                   99.8997
               17                  34                   99.8969
             17.1                34.2                   99.8938
             17.2                34.4                   99.8904
             17.3                34.6                   99.8873
             17.4                34.8                    99.884
             17.5                  35                   99.8801
             17.6                35.2                   99.8756
             17.7                35.4                   99.8717
             17.8                35.6                   99.8675
             17.9                35.8                   99.8627
               18                  36                   99.8573
             18.1                36.2                   99.8527
             18.2                36.4                   99.8486
             18.3                36.6                   99.8442
             18.4                36.8                   99.8405
             18.5                  37                   99.8374
             18.6                37.2                   99.8334
             18.7                37.4                   99.8294
             18.8                37.6                   99.8256
             18.9                37.8                   99.8221
               19                  38                    99.819
             19.1                38.2                   99.8157
             19.2                38.4                   99.8126
             19.3                38.6                   99.8095
             19.4                38.8                   99.8068
             19.5                  39                   99.8045
             19.6                39.2                   99.8027
             19.7                39.4                    99.801
             19.8                39.6                   99.7995
             19.9                39.8                   99.7977
               20                  40                   99.7957
             20.1                40.2                   99.7933
             20.2                40.4                   99.7908
             20.3                40.6                   99.7885
             20.4                40.8                   99.7861
             20.5                  41                   99.7835
             20.6                41.2                   99.7805
             20.7                41.4                   99.7779
             20.8                41.6                   99.7753
             20.9                41.8                   99.7729
               21                  42                   99.7702
             21.1                42.2                   99.7677
             21.2                42.4                   99.7655
             21.3                42.6                   99.7632
             21.4                42.8                   99.7611
             21.5                  43                   99.7589
             21.6                43.2                   99.7568
             21.7                43.4                   99.7547
             21.8                43.6                   99.7525
             21.9                43.8                   99.7498
               22                  44                   99.7462
             22.1                44.2                   99.7417
             22.2                44.4                   99.7373
             22.3                44.6                   99.7334
             22.4                44.8                   99.7294
             22.5                  45                   99.7253
             22.6                45.2                   99.7212
             22.7                45.4                   99.7173
             22.8                45.6                   99.7134
             22.9                45.8                   99.7095
               23                  46                   99.7049
             23.1                46.2                   99.7006
             23.2                46.4                    99.697
             23.3                46.6                   99.6933
             23.4                46.8                   99.6895
             23.5                  47                   99.6861
             23.6                47.2                   99.6828
             23.7                47.4                   99.6794
             23.8                47.6                   99.6759
             23.9                47.8                   99.6725
               24                  48                   99.6694
             24.1                48.2                   99.6664
             24.2                48.4                   99.6636
             24.3                48.6                   99.6607
             24.4                48.8                   99.6578
             24.5                  49                    99.655
             24.6                49.2                   99.6521
             24.7                49.4                   99.6484
             24.8                49.6                   99.6445
             24.9                49.8                   99.6388
               25                  50                    99.634
             25.1                50.2                   99.6296
             25.2                50.4                   99.6255
             25.3                50.6                   99.6213
             25.4                50.8                   99.6169
             25.5                  51                   99.6122
             25.6                51.2                   99.6075
             25.7                51.4                   99.6018
             25.8                51.6                   99.5967
             25.9                51.8                   99.5919
               26                  52                   99.5867
             26.1                52.2                   99.5811
             26.2                52.4                   99.5752
             26.3                52.6                    99.567
             26.4                52.8                   99.5593
             26.5                  53                   99.5504
             26.6                53.2                   99.5413
             26.7                53.4                   99.5325
             26.8                53.6                    99.523
             26.9                53.8                   99.5121
               27                  54                   99.5029
             27.1                54.2                   99.4943
             27.2                54.4                   99.4854
             27.3                54.6                   99.4766
             27.4                54.8                   99.4668
             27.5                  55                   99.4555
             27.6                55.2                   99.4432
             27.7                55.4                   99.4324
             27.8                55.6                   99.4228
             27.9                55.8                   99.4141
               28                  56                   99.4053
             28.1                56.2                    99.397
             28.2                56.4                   99.3888
             28.3                56.6                   99.3808
             28.4                56.8                    99.373
             28.5                  57                   99.3649
             28.6                57.2                   99.3563
             28.7                57.4                    99.348
             28.8                57.6                   99.3388
             28.9                57.8                   99.3283
